time (s)	coil I (A)	last det (V)	int current (uC)
9756.831186	1.089437	0.342404	463.010834
9756.832191	1.568262	0.342404	2039.113892
9756.833257	1.548981	0.342404	3690.327148
9756.834153	1.507877	0.342404	5041.385254
9756.835047	1.466741	0.342404	6352.651367
9756.836135	1.422264	0.342404	7900.075195
9756.837096	0.629714	0.342404	8505.230469
9756.837958	0.102532	0.342404	8593.613281
9756.838999	0.097987	0.342404	8695.618164
9756.840021	0.097987	0.342404	8795.760742
9756.840901	0.098152	0.342404	8882.134766
9756.841835	0.098104	0.342404	8973.763672
9756.842897	0.098210	0.342404	9078.063477
9756.843831	0.098097	0.342404	9169.685547
9756.844689	0.098097	0.342404	9253.852539
9756.845718	0.098079	0.342404	9354.775391
9756.846731	0.098075	0.342404	9454.125000
9757.773299	1.121851	0.471335	531.757202
9757.774178	1.568280	0.471335	1910.275269
9757.775045	1.559377	0.471335	3262.255371
9757.776096	1.513938	0.471335	4853.404297
9757.777043	1.471110	0.471335	6246.544922
9757.777920	1.433961	0.471335	7504.128906
9757.778868	1.007791	0.471335	8459.514648
9757.779934	0.114364	0.471335	8581.426758
9757.780811	0.098057	0.471335	8667.422852
9757.781680	0.098112	0.471335	8752.681641
9757.782699	0.098163	0.471335	8852.709961
9757.783656	0.098090	0.471335	8946.582031
9757.784529	0.098108	0.471335	9032.230469
9757.785451	0.098123	0.471335	9122.699219
9757.786518	0.098108	0.471335	9227.379883
9757.787405	0.098123	0.471335	9314.415039
9757.788269	0.098148	0.471335	9399.214844
9758.885447	1.195063	0.330911	662.065186
9758.886488	1.574388	0.330911	2301.003418
9758.887373	1.549438	0.330911	3672.256348
9758.888331	1.506533	0.330911	5115.515137
9758.889398	1.459211	0.330911	6672.493652
9758.890335	1.419906	0.330911	8002.945312
9758.891199	0.652064	0.330911	8566.329102
9758.892240	0.100137	0.330911	8670.571289
9758.893257	0.098112	0.330911	8770.350586
9758.894153	0.098141	0.330911	8858.285156
9758.895119	0.098192	0.330911	8953.138672
9758.896170	0.098068	0.330911	9056.208008
9758.897082	0.098057	0.330911	9145.635742
9758.897952	0.098145	0.330911	9231.021484
9758.899026	0.098240	0.330911	9336.531250
9758.900014	0.098126	0.330911	9433.479492
9758.900898	0.098156	0.330911	9520.249023
9759.833561	1.089269	0.468136	489.081696
9759.834422	1.565735	0.468136	1837.179321
9759.835474	1.553950	0.468136	3471.935059
9759.836510	1.508445	0.468136	5034.683594
9759.837384	1.468261	0.468136	6317.943359
9759.838341	1.428340	0.468136	7684.864746
9759.839407	0.690989	0.468136	8421.458984
9759.840323	0.102250	0.468136	8515.120117
9759.841193	0.098049	0.468136	8600.422852
9759.842259	0.098196	0.468136	8705.099609
9759.843237	0.098016	0.468136	8800.959961
9759.844129	0.098086	0.468136	8888.452148
9759.845096	0.098199	0.468136	8983.411133
9759.846151	0.098060	0.468136	9086.865234
9759.847055	0.098123	0.468136	9175.568359
9759.847916	0.098079	0.468136	9260.013672
9759.849011	0.098174	0.468136	9367.513672
9760.941609	1.140937	0.317912	610.401550
9760.942661	1.573663	0.317912	2265.895508
9760.943581	1.548160	0.317912	3690.203125
9760.944450	1.507767	0.317912	5000.453125
9760.945540	1.460127	0.317912	6591.991699
9760.946547	1.417998	0.317912	8019.916016
9760.947451	0.560918	0.317912	8526.986328
9760.948444	0.100499	0.317912	8626.782227
9760.949495	0.098177	0.317912	8729.966797
9760.950391	0.097998	0.317912	8817.773437
9760.951270	0.098167	0.317912	8904.061523
9760.952353	0.098130	0.317912	9010.335937
9760.953305	0.098064	0.317912	9103.692383
9760.954165	0.098112	0.317912	9188.068359
9760.955189	0.098199	0.317912	9288.625000
9760.956226	0.098214	0.317912	9390.472656
9760.957104	0.098093	0.317912	9476.598633
9761.889737	1.088178	0.469780	477.709961
9761.890614	1.565720	0.469780	1850.846558
9761.891603	1.556664	0.469780	3390.387207
9761.892657	1.510247	0.469780	4982.187012
9761.893566	1.468568	0.469780	6317.115234
9761.894435	1.430405	0.469780	7560.137695
9761.895528	0.772581	0.469780	8404.568359
9761.896506	0.102854	0.469780	8505.159180
9761.897364	0.098049	0.469780	8589.285156
9761.898436	0.098119	0.469780	8694.468750
9761.899474	0.098049	0.469780	8796.244141
9761.900355	0.098082	0.469780	8882.654297
9761.901264	0.098141	0.469780	8971.864258
9761.902340	0.098247	0.469780	9077.578125
9761.903290	0.098134	0.469780	9170.804687
9761.904148	0.098090	0.469780	9254.965820
9761.905183	0.098167	0.469780	9356.568359
9762.995737	1.149869	0.320841	586.433411
9762.996653	1.572085	0.320841	2026.463379
9762.997517	1.556136	0.320841	3370.965332
9762.998599	1.509485	0.320841	5004.228027
9762.999614	1.463976	0.320841	6490.163574
9763.000486	1.426798	0.320841	7734.331543
9763.001475	0.742775	0.320841	8468.935547
9763.002528	0.101082	0.320841	8575.374023
9763.003422	0.098071	0.320841	8663.049805
9763.004297	0.098064	0.320841	8748.855469
9763.005387	0.098097	0.320841	8855.781250
9763.006355	0.098016	0.320841	8950.661133
9763.007239	0.098049	0.320841	9037.336914
9763.008239	0.098119	0.320841	9135.456055
9763.009293	0.098068	0.320841	9238.819336
9763.010184	0.098152	0.320841	9326.272461
9763.011066	0.098181	0.320841	9412.868164
9763.949131	1.192837	0.451942	677.531372
9763.950026	1.572462	0.451942	2084.884766
9763.950950	1.553298	0.451942	3520.132324
9763.951817	1.512828	0.451942	4831.754883
9763.952862	1.467766	0.451942	6365.570312
9763.953739	1.429893	0.451942	7619.585937
9763.954624	1.013928	0.451942	8516.912109
9763.955602	0.125255	0.451942	8639.412109
9763.956537	0.097950	0.451942	8730.996094
9763.957412	0.098031	0.451942	8816.773437
9763.958353	0.098174	0.451942	8909.155273
9763.959379	0.097965	0.451942	9009.666992
9763.960271	0.097987	0.451942	9097.071289
9763.961146	0.098174	0.451942	9182.973633
9763.962126	0.098115	0.451942	9279.126953
9763.963091	0.098101	0.451942	9373.793945
9763.963968	0.098024	0.451942	9459.760742
9765.050811	1.090847	0.324700	462.519196
9765.051934	1.572656	0.324700	2228.612061
9765.052893	1.548234	0.324700	3713.368164
9765.053764	1.509045	0.324700	5027.746582
9765.054793	1.462800	0.324700	6532.967773
9765.055825	1.420023	0.324700	7998.431641
9765.056727	0.616721	0.324700	8554.713867
9765.057649	0.102312	0.324700	8649.045898
9765.058708	0.098141	0.324700	8752.977539
9765.059645	0.098086	0.324700	8844.883789
9765.060509	0.098141	0.324700	8929.677734
9765.061548	0.098207	0.324700	9031.714844
9765.062563	0.098046	0.324700	9131.231445
9765.063446	0.098031	0.324700	9217.792969
9765.064388	0.098210	0.324700	9310.307617
9765.065443	0.098064	0.324700	9413.764648
9765.066381	0.098042	0.324700	9505.728516
9766.006219	1.081252	0.441710	471.426056
9766.007087	1.565134	0.441710	1829.962646
9766.008119	1.554463	0.441710	3434.168457
9766.009146	1.509100	0.441710	4984.014648
9766.010038	1.468989	0.441710	6294.353027
9766.010982	1.429552	0.441710	7643.850098
9766.012047	0.731796	0.441710	8423.212891
9766.012986	0.102535	0.441710	8519.493164
9766.013847	0.098082	0.441710	8603.942383
9766.014912	0.098181	0.441710	8708.504883
9766.015905	0.098075	0.441710	8805.893555
9766.016794	0.098046	0.441710	8893.055664
9766.017771	0.098134	0.441710	8988.932617
9766.018806	0.098188	0.441710	9090.557617
9766.019717	0.098049	0.441710	9179.880859
9766.020576	0.097998	0.441710	9264.061523
9766.021667	0.098232	0.441710	9371.233398
9767.102923	1.080154	0.343016	472.027222
9767.103798	1.565665	0.343016	1841.984253
9767.104659	1.560436	0.343016	3185.519531
9767.105701	1.516187	0.343016	4765.385742
9767.106601	1.475002	0.343016	6092.887695
9767.107483	1.437810	0.343016	7361.036133
9767.108454	1.080582	0.343016	8410.281250
9767.109417	0.131836	0.343016	8537.239258
9767.110342	0.098009	0.343016	8627.897461
9767.111210	0.098185	0.343016	8713.122070
9767.112243	0.098119	0.343016	8814.478516
9767.113137	0.098090	0.343016	8902.170898
9767.114007	0.098086	0.343016	8987.505859
9767.114881	0.098082	0.343016	9073.229492
9767.115906	0.098170	0.343016	9173.853516
9767.116781	0.098115	0.343016	9259.704102
9767.117652	0.098108	0.343016	9345.156250
9768.064561	1.178665	0.424751	622.334900
9768.065594	1.574004	0.424751	2248.281006
9768.066496	1.549563	0.424751	3645.986816
9768.067450	1.507236	0.424751	5083.890137
9768.068506	1.459929	0.424751	6625.575195
9768.069436	1.420781	0.424751	7946.901855
9768.070306	0.699437	0.424751	8555.412109
9768.071370	0.100715	0.424751	8662.573242
9768.072375	0.098086	0.424751	8761.149414
9768.073250	0.098101	0.424751	8846.987305
9768.074235	0.098196	0.424751	8943.709961
9768.075289	0.098258	0.424751	9047.274414
9768.076195	0.098185	0.424751	9136.229492
9768.077052	0.098115	0.424751	9220.314453
9768.078103	0.098075	0.424751	9323.391602
9768.079097	0.098035	0.424751	9420.837891
9768.079985	0.098086	0.424751	9507.938477
9769.155089	1.142871	0.362816	579.435608
9769.156011	1.571829	0.362816	2028.661621
9769.156874	1.555957	0.362816	3371.452637
9769.157955	1.508785	0.362816	5002.449707
9769.158961	1.463621	0.362816	6474.852051
9769.159855	1.426439	0.362816	7750.088867
9769.160834	0.754706	0.362816	8488.946289
9769.161868	0.101580	0.362816	8593.979492
9769.162768	0.097947	0.362816	8682.131836
9769.163623	0.098060	0.362816	8765.973633
9769.164703	0.098170	0.362816	8871.997070
9769.165701	0.098082	0.362816	8969.882812
9769.166576	0.097998	0.362816	9055.630859
9769.167582	0.098152	0.362816	9154.372070
9769.168629	0.098049	0.362816	9257.029297
9769.169506	0.098049	0.362816	9343.018555
9769.170372	0.098097	0.362816	9427.970703
9770.124837	1.120334	0.406523	596.017883
9770.125782	1.572737	0.406523	2082.254150
9770.126700	1.552504	0.406523	3507.452637
9770.127579	1.513206	0.406523	4837.560547
9770.128605	1.467711	0.406523	6343.432129
9770.129506	1.429116	0.406523	7631.065918
9770.130389	0.982819	0.406523	8498.894531
9770.131295	0.126471	0.406523	8613.477539
9770.132305	0.097877	0.406523	8712.333984
9770.133222	0.098009	0.406523	8802.208008
9770.134094	0.098090	0.406523	8887.742187
9770.135104	0.098057	0.406523	8986.779297
9770.136020	0.098035	0.406523	9076.579102
9770.136939	0.098108	0.406523	9166.740234
9770.137796	0.098185	0.406523	9250.884766
9770.138809	0.098002	0.406523	9350.160156
9770.139702	0.098035	0.406523	9437.705078
9771.207194	1.124985	0.369853	588.367310
9771.208247	1.572583	0.369853	2244.297363
9771.209171	1.548146	0.369853	3674.784180
9771.210034	1.508408	0.369853	4976.540527
9771.211106	1.461566	0.369853	6543.339355
9771.212110	1.419716	0.369853	7968.733887
9771.212987	0.649200	0.369853	8538.083008
9771.213963	0.102341	0.369853	8637.967773
9771.215020	0.098035	0.369853	8741.590820
9771.215920	0.098005	0.369853	8829.795898
9771.216786	0.098112	0.369853	8914.760742
9771.217875	0.098152	0.369853	9021.648437
9771.218866	0.098060	0.369853	9118.826172
9771.219764	0.098093	0.369853	9206.914062
9771.220760	0.098199	0.369853	9304.720703
9771.221807	0.098038	0.369853	9407.367187
9771.222699	0.098112	0.369853	9494.882812
9772.184071	1.100559	0.393032	552.480652
9772.185124	1.573374	0.393032	2209.243408
9772.186016	1.550380	0.393032	3592.182129
9772.186884	1.511309	0.393032	4903.998047
9772.187943	1.464335	0.393032	6454.728516
9772.188909	1.423817	0.393032	7830.135742
9772.189794	0.786508	0.393032	8526.195312
9772.190702	0.108508	0.393032	8624.720703
9772.191766	0.097954	0.393032	8728.944336
9772.192642	0.098046	0.393032	8814.832031
9772.193500	0.098049	0.393032	8898.958008
9772.194523	0.098141	0.393032	8999.356445
9772.195491	0.098068	0.393032	9094.286133
9772.196366	0.098060	0.393032	9180.088867
9772.197245	0.098068	0.393032	9266.290039
9772.198332	0.097976	0.393032	9372.790039
9772.199227	0.098108	0.393032	9460.596680
9773.257273	1.190266	0.381717	647.504700
9773.258324	1.573982	0.381717	2301.759766
9773.259219	1.548270	0.381717	3687.461670
9773.260147	1.506292	0.381717	5085.300293
9773.261222	1.458633	0.381717	6653.330566
9773.262172	1.419448	0.381717	8001.806641
9773.263044	0.648116	0.381717	8566.963867
9773.264086	0.100228	0.381717	8671.401367
9773.265106	0.098097	0.381717	8771.459961
9773.265998	0.098137	0.381717	8858.998047
9773.266943	0.098167	0.381717	8951.765625
9773.267986	0.098159	0.381717	9054.145508
9773.268910	0.097987	0.381717	9144.685547
9773.269769	0.098009	0.381717	9228.875000
9773.270813	0.098071	0.381717	9331.261719
9773.271825	0.098159	0.381717	9430.598633
9773.272701	0.097961	0.381717	9516.413086
9774.243290	1.095736	0.397499	498.559906
9774.244370	1.572019	0.397499	2196.340576
9774.245328	1.548527	0.397499	3679.829102
9774.246193	1.509327	0.397499	4985.397461
9774.247250	1.462723	0.397499	6531.496094
9774.248283	1.419305	0.397499	7997.638672
9774.249183	0.620442	0.397499	8556.036133
9774.250123	0.102056	0.397499	8651.968750
9774.251176	0.097991	0.397499	8755.153320
9774.252098	0.098112	0.397499	8845.612305
9774.252967	0.098167	0.397499	8930.918945
9774.253993	0.098181	0.397499	9031.652344
9774.255008	0.098086	0.397499	9131.209961
9774.255900	0.098071	0.397499	9218.689453
9774.256865	0.098159	0.397499	9313.413086
9774.257908	0.098177	0.397499	9415.812500
9774.258840	0.098104	0.397499	9507.246094
9775.310418	1.204358	0.372069	685.279602
9775.311468	1.573894	0.372069	2337.868408
9775.312349	1.547930	0.372069	3701.594482
9775.313264	1.506577	0.372069	5080.112305
9775.314332	1.459680	0.372069	6639.050781
9775.315276	1.419968	0.372069	7979.500977
9775.316140	0.683185	0.372069	8569.772461
9775.317160	0.101147	0.372069	8672.943359
9775.318201	0.098104	0.372069	8775.070312
9775.319070	0.098126	0.372069	8860.341797
9775.320013	0.098134	0.372069	8952.881836
9775.321077	0.098042	0.372069	9057.198242
9775.322015	0.098093	0.372069	9149.209961
9775.322884	0.098079	0.372069	9234.440430
9775.323930	0.098258	0.372069	9337.218750
9775.324948	0.097899	0.372069	9436.879883
9775.325836	0.098086	0.372069	9523.980469
9776.301535	1.111249	0.404299	512.285645
9776.302418	1.567830	0.404299	1896.679199
9776.303393	1.555474	0.404299	3413.265869
9776.304452	1.508580	0.404299	5010.852539
9776.305379	1.466635	0.404299	6370.422852
9776.306243	1.429017	0.404299	7605.093750
9776.307335	0.740468	0.404299	8413.684570
9776.308317	0.101276	0.404299	8513.137695
9776.309213	0.098046	0.404299	8600.986328
9776.310192	0.098251	0.404299	8697.173828
9776.311237	0.098159	0.404299	8799.750000
9776.312144	0.098075	0.404299	8888.704102
9776.313005	0.098064	0.404299	8973.136719
9776.314096	0.098207	0.404299	9080.280273
9776.315062	0.098156	0.404299	9175.098633
9776.315921	0.098097	0.404299	9259.364258
9776.317006	0.098199	0.404299	9365.911133
9777.364521	1.160563	0.365313	606.974243
9777.365418	1.571466	0.365313	2016.579346
9777.366294	1.556235	0.365313	3379.841309
9777.367185	1.515846	0.365313	4730.459961
9777.368221	1.470037	0.365313	6253.417969
9777.369108	1.432526	0.365313	7524.068359
9777.369983	1.096069	0.365313	8483.128906
9777.371005	0.135275	0.365313	8621.379883
9777.371907	0.097833	0.365313	8709.625000
9777.372824	0.098064	0.365313	8799.549805
9777.373701	0.098236	0.365313	8885.703125
9777.374730	0.098049	0.365313	8986.595703
9777.375617	0.097969	0.365313	9073.494141
9777.376492	0.097994	0.365313	9159.239258
9777.377440	0.098082	0.365313	9252.221680
9777.378405	0.098093	0.365313	9346.881836
9777.379322	0.097958	0.365313	9436.708984
9778.359837	1.136938	0.406205	595.755737
9778.360894	1.572986	0.406205	2258.401855
9778.361812	1.547915	0.406205	3679.387939
9778.362682	1.507460	0.406205	4990.877930
9778.363775	1.460189	0.406205	6586.864746
9778.364777	1.417932	0.406205	8007.632812
9778.365665	0.599989	0.406205	8540.422852
9778.366676	0.101144	0.406205	8642.679687
9778.367721	0.098104	0.406205	8745.198242
9778.368609	0.098071	0.406205	8832.285156
9778.369469	0.097994	0.406205	8916.560547
9778.370594	0.098214	0.406205	9027.051758
9778.371552	0.098060	0.406205	9120.993164
9778.372410	0.098053	0.406205	9205.123047
9778.373429	0.098101	0.406205	9305.087891
9778.374467	0.097980	0.406205	9406.791016
9778.375353	0.098035	0.406205	9493.649414
9779.418565	1.070596	0.362308	461.426727
9779.419457	1.563929	0.362308	1856.451782
9779.420548	1.551614	0.362308	3549.262451
9779.421504	1.508683	0.362308	4991.563477
9779.422373	1.469377	0.362308	6268.452148
9779.423402	1.426124	0.362308	7735.934082
9779.424436	0.672953	0.362308	8431.767578
9779.425327	0.102524	0.362308	8523.117187
9779.426271	0.098046	0.362308	8615.671875
9779.427326	0.098082	0.362308	8719.148437
9779.428249	0.098130	0.362308	8809.722656
9779.429116	0.098075	0.362308	8894.753906
9779.430179	0.098159	0.362308	8999.096680
9779.431188	0.098027	0.362308	9098.005859
9779.432080	0.098075	0.362308	9185.488281
9779.433041	0.098075	0.362308	9279.738281
9779.434082	0.097972	0.362308	9381.727539
9780.414019	1.186263	0.411716	665.493774
9780.414940	1.572949	0.411716	2114.180176
9780.415858	1.551687	0.411716	3538.628906
9780.416740	1.511470	0.411716	4871.745117
9780.417778	1.466147	0.411716	6393.606445
9780.418671	1.428267	0.411716	7669.048340
9780.419559	0.961187	0.411716	8522.582031
9780.420532	0.121154	0.411716	8640.464844
9780.421482	0.097958	0.411716	8733.524414
9780.422401	0.098009	0.411716	8823.594727
9780.423265	0.098090	0.411716	8908.343750
9780.424311	0.098093	0.411716	9010.949219
9780.425198	0.097991	0.411716	9097.867187
9780.426063	0.098236	0.411716	9182.841797
9780.426992	0.098141	0.411716	9274.014648
9780.427984	0.098064	0.411716	9371.293945
9780.428892	0.097961	0.411716	9460.243164
9781.472778	1.116138	0.356765	562.533447
9781.473829	1.572462	0.356765	2215.190918
9781.474766	1.548193	0.356765	3665.848145
9781.475634	1.508438	0.356765	4975.171875
9781.476703	1.461269	0.356765	6537.269043
9781.477712	1.419174	0.356765	7969.215332
9781.478615	0.614498	0.356765	8524.107422
9781.479596	0.101613	0.356765	8623.789062
9781.480662	0.098148	0.356765	8728.415039
9781.481574	0.098090	0.356765	8817.873047
9781.482436	0.098130	0.356765	8902.460937
9781.483520	0.098196	0.356765	9008.905273
9781.484508	0.098104	0.356765	9105.832031
9781.485382	0.098229	0.356765	9191.683594
9781.486376	0.098119	0.356765	9289.213867
9781.487436	0.098082	0.356765	9393.180664
9781.488314	0.098148	0.356765	9479.354492
9782.469050	1.085651	0.409637	459.230194
9782.470156	1.571525	0.409637	2197.336426
9782.471125	1.547897	0.409637	3697.248535
9782.471988	1.508954	0.409637	4999.475586
9782.473041	1.461830	0.409637	6538.782227
9782.474085	1.418697	0.409637	8019.902344
9782.474973	0.613293	0.409637	8564.506836
9782.475892	0.102100	0.409637	8658.335937
9782.476965	0.098097	0.409637	8763.593750
9782.477904	0.098112	0.409637	8855.720703
9782.478763	0.098097	0.409637	8939.986328
9782.479783	0.098170	0.409637	9040.120117
9782.480803	0.097914	0.409637	9139.992187
9782.481690	0.098016	0.409637	9226.932617
9782.482627	0.098130	0.409637	9318.879883
9782.483689	0.098075	0.409637	9423.035156
9782.484632	0.098141	0.409637	9515.582031
9783.527883	1.077158	0.352056	471.795288
9783.528758	1.565585	0.352056	1841.681885
9783.529624	1.560011	0.352056	3192.651367
9783.530668	1.515249	0.352056	4774.571289
9783.531565	1.474406	0.352056	6097.113281
9783.532444	1.437188	0.352056	7360.401367
9783.533376	1.110718	0.352056	8395.589844
9783.534362	0.134436	0.352056	8528.143555
9783.535285	0.097972	0.352056	8618.572266
9783.536162	0.098057	0.352056	8704.568359
9783.537174	0.098130	0.352056	8803.875977
9783.538070	0.098057	0.352056	8891.734375
9783.538993	0.098057	0.352056	8982.240234
9783.539853	0.098203	0.352056	9066.695312
9783.540900	0.097961	0.352056	9169.260742
9783.541772	0.098020	0.352056	9254.734375
9783.542646	0.098046	0.352056	9340.426758
9784.522167	1.072163	0.410036	449.236298
9784.523235	1.570375	0.410036	2126.396484
9784.524205	1.549028	0.410036	3628.953857
9784.525093	1.509686	0.410036	4969.555176
9784.526096	1.464683	0.410036	6438.631836
9784.527147	1.421155	0.410036	7932.265625
9784.528048	0.674608	0.410036	8540.087891
9784.528938	0.103652	0.410036	8632.338867
9784.530035	0.098082	0.410036	8739.935547
9784.530974	0.097976	0.410036	8831.935547
9784.531842	0.098119	0.410036	8917.102539
9784.532866	0.098236	0.410036	9017.696289
9784.533890	0.098090	0.410036	9118.139648
9784.534782	0.098101	0.410036	9205.645508
9784.535718	0.098057	0.410036	9297.426758
9784.536765	0.098123	0.410036	9400.161133
